VAMAS Surface Chemical Analysis Standard Data Transfer Format 1988 May 4

R4000LI-4MS241_4ES243
Zakaria
Not Specified
0
NORM
REGULAR
0
3
Slice
d
Theta
d
X-Axis
d
0
0
0
0
2
survey 655
Au
2023
4
13
2
3
31
0
7
Casa Info Follows
0
0
0
0
Au
Lens Mode = Transmission
XPS
1
0
0
Sync
655
1e+037
1e+037
1e+037
1e+037
1e+037
FAT
100
1e+037
1e+037
1e+037
1e+037
1e+037
1e+037
1e+037
survey 655
 
-1
Kinetic Energy
eV
55
0.5
2
Intensity
d
Transmission
d
pulse counting
0.067
1
1e+037
1e+037
1e+037
1e+037
0
2422
0
1
0
1
13844.7
1
12405.8
1
13365.1
1
15925.7
1
14376.9
1
14764.5
1
13798.7
1
16209.9
1
13437.3
1
13489.9
1
12880.5
1
13389.7
1
11814.5
1
13797.1
1
12162.8
1
14529.6
1
12248.2
1
12525.8
1
12691.6
1
12382.9
1
14772.7
1
11413.8
1
13877.5
1
12933.1
1
13831.5
1
13199.2
1
12312.2
1
11872
1
12995.5
1
12875.6
1
14036.9
1
14247.1
1
13895.6
1
13350.3
1
12890.4
1
14125.6
1
13854.5
1
12151.3
1
13103.9
1
14022.1
1
13918.6
1
11714.4
1
11706.1
1
11152.6
1
13370
1
12532.3
1
10723.9
1
10057.1
1
10456.2
1
10331.4
1
10980.2
1
8404.7
1
10001.2
1
10227.9
1
9853.4
1
7478.33
1
9014.07
1
6410.7
1
10812.6
1
8061.42
1
8128.76
1
7353.5
1
7383.07
1
7870.89
1
7537.46
1
7916.88
1
9579.1
1
7205.67
1
8774.27
1
6826.26
1
5970.51
1
7798.62
1
6128.19
1
7238.53
1
8196.11
1
8403.06
1
7512.82
1
7412.63
1
7629.44
1
7116.98
1
6683.36
1
5983.65
1
6568.38
1
7108.77
1
7371.57
1
6813.12
1
7417.56
1
7908.67
1
8035.14
1
6806.55
1
7805.19
1
7716.49
1
8159.97
1
6443.55
1
6837.75
1
7052.92
1
7759.2
1
6739.2
1
7741.13
1
6317.08
1
6410.7
1
6069.06
1
7598.23
1
8051.57
1
7151.47
1
6711.28
1
7200.75
1
6136.4
1
7415.92
1
9079.77
1
7113.69
1
7197.46
1
7493.11
1
7015.14
1
7412.63
1
8795.62
1
6724.42
1
7315.72
1
7010.22
1
6722.78
1
7374.85
1
6161.04
1
6394.28
1
6832.83
1
7723.06
1
6119.98
1
5535.25
1
5318.44
1
7575.24
1
7545.67
1
6831.18
1
6921.52
1
6983.94
1
7279.59
1
7208.96
1
6844.32
1
8557.46
1
7836.4
1
6898.53
1
7857.75
1
8260.16
1
8087.7
1
6464.9
1
6277.66
1
5655.15
1
7590.02
1
6023.07
1
5978.72
1
7374.85
1
5714.28
1
6184.04
1
6069.06
1
6024.71
1
6528.96
1
7281.23
1
7910.31
1
6157.76
1
5587.81
1
7271.38
1
4968.58
1
7108.77
1
7435.63
1
6126.55
1
6234.95
1
6502.68
1
5980.37
1
6730.99
1
6612.73
1
5269.16
1
6105.2
1
6185.68
1
5052.35
1
5793.12
1
7189.25
1
7967.8
1
6096.98
1
5507.32
1
7788.76
1
6445.19
1
5706.07
1
6857.46
1
5504.04
1
6264.52
1
7046.35
1
6126.55
1
6934.66
1
6540.46
1
6295.73
1
5336.5
1
7529.25
1
5272.45
1
6752.34
1
6404.13
1
5302.01
1
5655.15
1
5658.43
1
5725.78
1
6816.4
1
5535.25
1
6868.96
1
6468.19
1
5648.58
1
7517.75
1
5581.24
1
4848.68
1
5487.61
1
6624.23
1
4600.66
1
6200.46
1
6520.75
1
4860.18
1
6786.84
1
5747.13
1
5398.92
1
6681.72
1
7215.53
1
4957.08
1
6816.4
1
5972.15
1
6326.93
1
4865.1
1
6404.13
1
5812.83
1
6169.25
1
6128.19
1
5416.99
1
6520.75
1
4794.48
1
5287.23
1
5876.89
1
6683.36
1
4973.51
1
6014.86
1
5827.61
1
4107.91
1
4888.1
1
4339.5
1
4746.84
1
5469.55
1
4883.17
1
5136.12
1
5247.81
1
5180.46
1
5576.31
1
5530.32
1
5743.84
1
6138.05
1
5096.7
1
5536.89
1
6392.63
1
5674.86
1
6096.98
1
6363.07
1
6632.44
1
5725.78
1
5124.62
1
5132.83
1
6423.84
1
5129.55
1
6256.31
1
6057.56
1
5352.93
1
7892.24
1
5832.54
1
4922.59
1
4722.21
1
5037.57
1
6655.44
1
6330.22
1
4086.56
1
5078.63
1
5267.52
1
6821.33
1
6008.29
1
6198.82
1
5254.38
1
4599.02
1
5264.23
1
5288.87
1
5042.49
1
5538.53
1
5558.24
1
4686.07
1
7218.82
1
5034.28
1
5528.68
1
5970.51
1
4548.1
1
5392.35
1
5236.31
1
4217.96
1
4769.84
1
5960.66
1
5487.61
1
5282.3
1
6023.07
1
6285.87
1
4927.52
1
6783.55
1
5926.16
1
5348
1
5149.26
1
4190.03
1
5484.33
1
4232.74
1
3840.18
1
5377.57
1
5280.66
1
5413.7
1
6568.38
1
5760.27
1
4985.01
1
6602.88
1
5029.35
1
5484.33
1
5359.5
1
5200.17
1
5193.6
1
5597.66
1
4694.28
1
4705.78
1
4646.65
1
5364.43
1
5127.9
1
6121.62
1
5124.62
1
4375.64
1
4217.96
1
6481.33
1
5004.72
1
6182.39
1
5287.23
1
5517.18
1
5037.57
1
4240.95
1
6080.56
1
5334.86
1
4993.22
1
4980.08
1
5290.51
1
5753.7
1
6119.98
1
5413.7
1
5829.25
1
5280.66
1
5351.29
1
5039.21
1
5398.92
1
5748.77
1
5231.38
1
4912.74
1
5553.31
1
4735.35
1
5786.55
1
5175.54
1
5778.34
1
5162.4
1
4893.03
1
4778.05
1
5714.28
1
5026.07
1
5625.58
1
5308.58
1
4646.65
1
4224.53
1
6279.3
1
5993.51
1
6303.94
1
5449.84
1
5678.14
1
5701.14
1
4934.09
1
5272.45
1
5568.1
1
6652.15
1
5857.18
1
6116.69
1
5556.6
1
4608.87
1
5766.84
1
5438.34
1
4521.82
1
5584.52
1
4870.03
1
6215.24
1
4891.38
1
5985.29
1
5615.73
1
6050.99
1
6768.77
1
5162.4
1
5508.97
1
5367.71
1
5180.46
1
4952.16
1
4326.36
1
5919.59
1
5563.17
1
5099.98
1
5456.41
1
6479.69
1
5934.38
1
6060.85
1
5755.34
1
5924.52
1
5945.87
1
5288.87
1
5274.09
1
5671.57
1
4700.85
1
5323.36
1
4658.15
1
5103.27
1
4802.69
1
4485.68
1
5528.68
1
5172.25
1
5911.38
1
4835.54
1
6486.26
1
5103.27
1
5154.18
1
5211.67
1
5886.74
1
5763.55
1
5155.83
1
5449.84
1
5748.77
1
5783.26
1
4603.95
1
5531.96
1
6042.78
1
5315.15
1
4111.19
1
4341.14
1
5776.69
1
4735.35
1
5663.36
1
5026.07
1
6276.02
1
5219.88
1
5451.48
1
5678.14
1
5145.97
1
5257.66
1
4879.89
1
5853.89
1
5574.67
1
5091.77
1
5239.59
1
4122.69
1
6070.7
1
5065.49
1
6234.95
1
5037.57
1
5170.61
1
5520.46
1
6180.75
1
5242.88
1
4983.36
1
6149.54
1
6059.21
1
4822.4
1
5311.87
1
5932.73
1
5219.88
1
5533.6
1
4502.11
1
4705.78
1
5919.59
1
5530.32
1
5155.83
1
5479.4
1
5017.86
1
5817.76
1
6165.97
1
5587.81
1
5650.22
1
5756.98
1
5558.24
1
6294.08
1
5017.86
1
5513.89
1
6177.47
1
5622.3
1
6101.91
1
6134.76
1
4679.5
1
5210.03
1
5996.79
1
5118.05
1
4794.48
1
5778.34
1
6231.67
1
6351.57
1
7156.4
1
7005.29
1
6583.17
1
8040.07
1
6867.32
1
6469.83
1
6336.79
1
5983.65
1
5436.7
1
6719.49
1
5141.04
1
5888.38
1
5380.85
1
5812.83
1
4968.58
1
5356.21
1
4061.92
1
4957.08
1
5150.9
1
5127.9
1
4947.23
1
4735.35
1
4472.54
1
5495.83
1
5293.8
1
6284.23
1
4904.52
1
4539.89
1
5665
1
5444.91
1
6458.33
1
5487.61
1
6652.15
1
6435.34
1
7402.78
1
7277.95
1
7655.72
1
8045
1
6236.6
1
7445.48
1
7025
1
6011.57
1
5584.52
1
4727.13
1
5819.4
1
4932.45
1
3894.38
1
5683.07
1
3789.26
1
5584.52
1
4694.28
1
4817.47
1
4847.04
1
5814.47
1
4525.1
1
5646.94
1
5653.51
1
4738.63
1
4610.52
1
4906.17
1
4595.73
1
5982.01
1
4784.62
1
4700.85
1
5096.7
1
5960.66
1
4160.47
1
4633.51
1
4623.66
1
4331.29
1
4429.84
1
4469.26
1
4778.05
1
5239.59
1
4157.18
1
3720.28
1
5408.77
1
4819.11
1
5067.13
1
4280.37
1
5091.77
1
4544.81
1
3759.7
1
4630.23
1
3700.57
1
4454.48
1
4584.23
1
5850.61
1
5272.45
1
5458.05
1
4960.37
1
4886.46
1
4776.41
1
4912.74
1
4743.56
1
5742.2
1
5006.36
1
4198.25
1
4927.52
1
4843.75
1
5952.44
1
5970.51
1
4410.13
1
3560.95
1
4554.67
1
5063.85
1
4196.6
1
4801.05
1
4472.54
1
4917.66
1
4625.3
1
4521.82
1
4561.24
1
5142.69
1
4109.55
1
4661.43
1
3891.1
1
4493.9
1
4536.6
1
4309.94
1
3823.75
1
5665
1
4888.1
1
5093.41
1
3771.19
1
4042.21
1
5292.16
1
5405.49
1
5627.23
1
4295.15
1
4329.65
1
4079.99
1
3444.34
1
4214.67
1
6287.51
1
6187.32
1
8938.52
1
8697.07
1
12427.2
1
13154.8
1
8587.02
1
6244.81
1
3667.72
1
4672.93
1
4942.3
1
4691
1
4339.5
1
4372.35
1
3148.68
1
4998.15
1
4830.61
1
4676.22
1
3603.66
1
3542.89
1
4148.97
1
4556.31
1
4796.12
1
4395.35
1
4710.71
1
4554.67
1
4400.27
1
4078.34
1
3902.59
1
4162.11
1
4605.59
1
4645.01
1
4129.26
1
3716.99
1
4756.7
1
5523.75
1
5053.99
1
4677.86
1
4424.91
1
5568.1
1
4784.62
1
3994.58
1
5380.85
1
5277.37
1
5359.5
1
3556.03
1
3682.5
1
4075.06
1
4628.58
1
3812.26
1
4034
1
4782.98
1
5392.35
1
5001.43
1
4966.94
1
4819.11
1
4965.3
1
5070.42
1
5016.21
1
4538.24
1
5086.84
1
4006.07
1
4858.53
1
5665
1
4809.26
1
4888.1
1
5444.91
1
6318.72
1
5371
1
4439.69
1
4388.78
1
5034.28
1
4065.2
1
4899.6
1
3232.45
1
4232.74
1
4270.52
1
4851.96
1
5034.28
1
4158.83
1
4053.71
1
4431.48
1
3508.39
1
5029.35
1
4751.77
1
3923.95
1
4142.4
1
3112.55
1
5387.42
1
6336.79
1
5321.72
1
4308.29
1
5011.29
1
5477.76
1
4541.53
1
3687.43
1
5633.8
1
4942.3
1
5382.49
1
3345.79
1
5078.63
1
4572.74
1
4833.9
1
4523.46
1
3874.67
1
4227.81
1
5270.8
1
4548.1
1
4022.5
1
4643.37
1
5293.8
1
4807.62
1
4592.45
1
4774.77
1
3866.46
1
4147.33
1
3531.39
1
4270.52
1
4630.23
1
3736.7
1
5980.37
1
5384.14
1
6785.19
1
4916.02
1
5967.23
1
3735.06
1
4871.67
1
5658.43
1
5886.74
1
4925.88
1
5303.65
1
4858.53
1
5993.51
1
4853.61
1
5510.61
1
5413.7
1
5719.21
1
4226.17
1
4275.44
1
5226.45
1
5091.77
1
4157.18
1
4820.76
1
5681.43
1
4771.48
1
4584.23
1
5707.71
1
5098.34
1
4866.75
1
5476.12
1
6167.61
1
4398.63
1
6042.78
1
5369.35
1
5697.85
1
4153.9
1
4953.8
1
5279.02
1
6105.2
1
6182.39
1
5045.78
1
5671.57
1
5691.28
1
5328.29
1
4421.63
1
5594.38
1
5870.32
1
5310.22
1
5574.67
1
4347.71
1
4781.34
1
5720.85
1
5001.43
1
6422.2
1
5646.94
1
5252.74
1
6096.98
1
4523.46
1
5334.86
1
5474.47
1
6671.86
1
4924.23
1
4070.13
1
5504.04
1
4842.11
1
4858.53
1
5822.68
1
5205.1
1
4553.03
1
4341.14
1
5775.05
1
5490.9
1
7254.95
1
5170.61
1
5645.29
1
6556.89
1
5678.14
1
6558.53
1
5556.6
1
4861.82
1
4792.83
1
6271.09
1
4203.17
1
5185.39
1
5467.9
1
6108.48
1
6942.87
1
4782.98
1
5285.59
1
6376.21
1
6200.46
1
5954.09
1
6461.62
1
5642.01
1
6253.02
1
5536.89
1
6065.78
1
5871.96
1
5771.77
1
4914.38
1
5495.83
1
7225.39
1
7254.95
1
6305.58
1
5730.7
1
5055.63
1
5913.02
1
5929.45
1
7034.85
1
4838.82
1
5320.08
1
5881.81
1
6530.6
1
5147.61
1
5600.95
1
6230.03
1
6926.45
1
5876.89
1
6722.78
1
6813.12
1
5844.04
1
6376.21
1
6041.14
1
6326.93
1
6087.13
1
6008.29
1
8035.14
1
6576.6
1
6721.14
1
6960.94
1
5694.57
1
6307.22
1
6271.09
1
5855.53
1
5760.27
1
5628.87
1
7061.13
1
6392.63
1
6850.89
1
7281.23
1
6333.5
1
7082.49
1
6576.6
1
7171.18
1
6193.89
1
6757.27
1
6119.98
1
6384.42
1
6078.92
1
5707.71
1
6230.03
1
7949.73
1
7223.74
1
7023.36
1
6666.93
1
5952.44
1
7069.35
1
6908.38
1
7463.55
1
7084.13
1
7644.22
1
5485.97
1
6609.45
1
7389.64
1
7974.37
1
6818.04
1
6463.26
1
6251.38
1
7911.95
1
8187.89
1
7603.16
1
8389.92
1
7920.17
1
5425.2
1
7672.15
1
7524.32
1
8375.14
1
8961.51
1
8340.65
1
6366.35
1
7320.65
1
6847.61
1
6739.2
1
7885.67
1
7974.37
1
5599.3
1
7534.18
1
8018.72
1
6749.06
1
7342
1
6694.86
1
6663.65
1
5380.85
1
7636.01
1
5880.17
1
7486.54
1
6854.18
1
7637.65
1
6836.11
1
8210.89
1
9124.12
1
7688.57
1
8767.7
1
7990.79
1
8802.19
1
8522.97
1
9329.44
1
7836.4
1
7455.34
1
9247.31
1
10405.3
1
8417.84
1
8435.91
1
10388.9
1
7432.34
1
8950.02
1
8271.66
1
7708.28
1
8429.34
1
8877.75
1
9536.39
1
7394.56
1
8780.84
1
8289.73
1
6597.95
1
9508.47
1
9311.37
1
6906.74
1
8789.05
1
8871.18
1
9588.95
1
8194.46
1
11509
1
8053.21
1
7976.01
1
9804.12
1
8046.64
1
8342.29
1
9336.01
1
8769.34
1
7903.74
1
8948.37
1
8407.99
1
8733.21
1
9927.31
1
9171.75
1
9004.22
1
8598.52
1
9288.37
1
9884.6
1
7770.7
1
9046.92
1
9574.17
1
8432.63
1
8348.86
1
8943.45
1
7948.09
1
8319.29
1
7330.51
1
9051.85
1
7447.12
1
7989.15
1
5993.51
1
5564.81
1
6156.11
1
7521.04
1
6182.39
1
7693.5
1
7631.08
1
6175.82
1
6865.68
1
6773.7
1
5967.23
1
7207.32
1
7125.19
1
10503.8
1
14043.4
1
37725.1
1
69934.6
1
53484.9
1
18882.3
1
7378.14
1
6814.76
1
12778.7
1
27198.3
1
83432.7
1
88235.4
1
30925.1
1
7645.87
1
3357.28
1
1943.08
1
1663.86
1
1461.83
1
1107.05
1
1259.8
1
1144.83
1
1156.32
1
1484.83
1
1524.25
1
1133.33
1
921.446
1
1305.79
1
1302.51
1
698.065
1
1167.82
1
1052.85
1
975.649
1
1248.3
1
752.268
1
857.388
1
859.031
1
926.374
1
408.984
1
936.229
1
837.678
1
714.49
1
819.611
1
1039.71
1
574.877
1
413.912
1
482.897
1
762.123
1
1011.78
1
454.974
1
785.118
1
1565.31
1
392.559
1
895.166
1
1430.62
1
343.284
1
1179.32
1
1084.05
1
1902.02
1
1011.78
1
955.939
1
1085.7
1
1547.24
1
1136.61
1
829.466
1
997.001
1
2335.64
1
1369.85
1
757.195
1
661.93
1
983.861
1
1215.45
1
967.436
1
1130.04
1
801.543
1
594.587
1
482.897
1
767.05
1
762.123
1
323.574
1
768.693
1
326.859
1
479.612
1
320.289
1
394.202
1
548.597
1
349.854
1
330.144
1
257.873
1
428.694
1
395.844
1
578.162
1
262.801
1
108.405
1
535.457
1
392.559
1
303.864
1
218.453
1
279.226
1
252.946
1
591.302
1
272.656
1
313.719
1
177.391
1
558.452
1
581.447
1
351.496
1
589.66
1
264.444
1
771.978
1
338.356
1
967.436
1
136.328
1
208.598
1
583.09
1
295.651
1
440.192
1
459.902
1
195.458
1
528.887
1
517.389
1
893.523
1
473.042
1
500.964
1
390.916
1
535.457
1
706.278
1
290.724
1
519.032
1
412.269
1
647.147
1
298.936
1
343.284
1
606.085
1
353.139
1
300.579
1
634.007
1
512.462
1
822.896
1
418.839
1
415.554
1
537.1
1
801.543
1
739.128
1
1174.39
1
303.864
1
356.424
1
174.106
1
476.327
1
269.371
1
433.622
1
678.355
1
461.544
1
443.477
1
635.65
1
474.684
1
372.849
1
666.858
1
463.187
1
399.129
1
931.301
1
372.849
1
351.496
1
609.37
1
1151.4
1
1557.1
1
1898.74
1
1000.29
1
1240.09
1
1701.64
1
1176.03
1
1971.01
1
1325.5
1
2378.35
1
2108.98
1
1105.41
1
591.302
1
231.593
1
344.926
1
310.434
1
149.468
1
70.6278
1
141.256
1
83.7678
1
72.2703
1
72.2703
1
65.7003
1
170.821
1
Au 4f 655
Au
2023
4
13
2
3
31
0
7
Casa Info Follows
0
0
0
0
Au
Lens Mode = Transmission
XPS
1
0
0
Sync
655
1e+037
1e+037
1e+037
1e+037
1e+037
FAT
100
1e+037
1e+037
1e+037
1e+037
1e+037
1e+037
1e+037
Au 4f 655
 
-1
Kinetic Energy
eV
562
0.1
2
Intensity
d
Transmission
d
pulse counting
0.2
3
1e+037
1e+037
1e+037
1e+037
0
282
0
1
0
1
60107.5
1
61396.9
1
61533.2
1
63693.1
1
67828.9
1
67858.5
1
60623.3
1
59122
1
64157.9
1
63491.1
1
60708.7
1
66357.3
1
61653.1
1
56196.7
1
60046.7
1
59987.6
1
60646.3
1
61763.2
1
61171.9
1
58839.5
1
66682.5
1
64194.1
1
59951.5
1
62321.6
1
59806.9
1
58951.2
1
62893.2
1
64915.1
1
65297.8
1
65304.4
1
67886.4
1
69501
1
66631.6
1
70465.2
1
69052.6
1
70235.2
1
65586.9
1
72539.6
1
68627.2
1
70171.2
1
67554.6
1
67472.5
1
69310.5
1
70905.4
1
77376.8
1
76310.8
1
82874.3
1
88833.3
1
97085.3
1
100654
1
114660
1
126877
1
142555
1
166248
1
212092
1
266663
1
336067
1
422924
1
533332
1
618767
1
686167
1
739228
1
755594
1
715219
1
644841
1
546705
1
451379
1
344772
1
275343
1
212002
1
161148
1
129237
1
108507
1
95025.6
1
86606.1
1
77468.8
1
73697.6
1
66242.3
1
66951.8
1
69210.3
1
65422.7
1
68881.8
1
69849.2
1
74155.9
1
83600.3
1
86560.1
1
95480.5
1
111819
1
135857
1
164123
1
190293
1
254884
1
328509
1
432295
1
562527
1
690434
1
812582
1
915213
1
974556
1
961223
1
909648
1
794993
1
661316
1
517613
1
401529
1
280336
1
204420
1
152901
1
111823
1
81810
1
63882
1
54064.7
1
44791.1
1
40530.5
1
35451.9
1
27424.9
1
27806
1
22374.2
1
24033.2
1
21667.9
1
20225.8
1
17844.2
1
18176
1
17744
1
16157.3
1
17808.1
1
14792.4
1
14999.4
1
14161.7
1
12862.5
1
14012.2
1
13585.2
1
14186.3
1
12281
1
14225.7
1
12379.6
1
10889.8
1
11592.8
1
11206.8
1
11449.9
1
11581.3
1
end of experiment
